#Time (S)	Lockin (mV)	Temp (V)
77.78	0.123047	0.986328
78.30	0.103500	0.981941
78.82	0.104630	0.981865
79.35	0.108147	0.982037
79.88	0.106090	0.981889
80.41	0.103397	0.981186
80.94	0.102421	0.981297
81.46	0.102199	0.980853
81.99	0.104389	0.980558
82.52	0.105868	0.980742
83.05	0.103738	0.980521
83.58	0.107082	0.980003
84.10	0.104093	0.980669
84.63	0.103693	0.979300
85.16	0.104803	0.979300
85.69	0.102687	0.980151
86.22	0.105853	0.979411
86.74	0.104181	0.978782
87.26	0.103897	0.978737
87.78	0.103333	0.977898
88.30	0.105164	0.978050
88.82	0.105057	0.977631
89.34	0.101288	0.976295
89.87	0.100540	0.976944
90.39	0.106995	0.975838
90.91	0.108810	0.974808
91.43	0.103455	0.974693
91.95	0.103745	0.973396
92.47	0.105865	0.973969
92.99	0.105682	0.973549
93.51	0.107407	0.972023
94.03	0.102448	0.972252
94.55	0.105194	0.971451
95.07	0.107819	0.972748
95.59	0.105057	0.972481
96.11	0.109222	0.971107
96.63	0.102386	0.970993
97.15	0.102951	0.970039
97.67	0.106247	0.970726
98.19	0.103668	0.970917
98.71	0.103607	0.969849
99.23	0.105148	0.969276
99.75	0.107391	0.968285
100.27	0.102463	0.967712
100.79	0.106155	0.968819
101.31	0.107315	0.967445
101.83	0.100876	0.966263
102.35	0.103989	0.966911
102.87	0.105988	0.966873
103.39	0.107773	0.966263
103.91	0.101059	0.965424
104.43	0.102844	0.965271
104.95	0.100296	0.965042
105.47	0.102478	0.963707
105.99	0.099121	0.965309
106.51	0.105392	0.963821
107.03	0.106247	0.962257
107.55	0.105347	0.962791
108.07	0.105377	0.961609
108.59	0.107590	0.962677
109.11	0.102448	0.961304
109.63	0.107849	0.960808
110.15	0.108322	0.960503
110.67	0.106537	0.959816
111.19	0.107407	0.960960
111.71	0.105194	0.960884
112.23	0.105850	0.959358
112.75	0.104355	0.959473
113.27	0.101318	0.958061
113.79	0.104797	0.959396
114.31	0.101807	0.958748
114.83	0.103226	0.958252
115.35	0.104477	0.957603
115.87	0.103195	0.956650
116.39	0.107071	0.957985
116.91	0.103928	0.958023
117.43	0.105942	0.956688
117.95	0.104630	0.956001
118.47	0.105621	0.956116
118.99	0.105682	0.956154
119.51	0.109009	0.956917
120.03	0.103760	0.955391
120.55	0.102783	0.955429
121.07	0.108353	0.953484
121.59	0.102249	0.954399
122.11	0.106812	0.955086
122.63	0.108505	0.953369
123.15	0.107697	0.954132
123.67	0.103714	0.952797
124.19	0.107468	0.953751
124.71	0.101440	0.954094
125.23	0.104233	0.951958
125.75	0.105820	0.952721
126.27	0.101730	0.951347
126.79	0.105087	0.951271
127.31	0.104935	0.952377
127.83	0.104324	0.951385
128.35	0.104919	0.950623
128.87	0.104736	0.950813
129.39	0.105759	0.950890
129.91	0.103714	0.950928
130.43	0.103409	0.950127
130.95	0.106735	0.950165
131.47	0.108322	0.949440
131.99	0.105820	0.949211
132.51	0.108322	0.949898
133.03	0.108276	0.948868
133.56	0.105942	0.947838
134.08	0.106140	0.949249
134.60	0.107407	0.947762
135.12	0.105865	0.947304
135.64	0.104752	0.947151
136.16	0.103317	0.948067
136.68	0.104996	0.948105
137.20	0.103271	0.946465
137.73	0.103333	0.947189
138.25	0.106461	0.946579
138.77	0.105408	0.946846
139.29	0.103104	0.946617
139.81	0.104645	0.946503
140.33	0.104797	0.946579
140.85	0.104996	0.946121
141.37	0.106781	0.944786
141.89	0.104721	0.945816
142.41	0.103027	0.944176
142.93	0.102921	0.945091
143.45	0.106735	0.945549
143.97	0.106171	0.945625
144.49	0.104370	0.944519
145.01	0.102539	0.943832
145.54	0.102615	0.944405
146.06	0.107254	0.943680
146.58	0.104111	0.942993
147.10	0.105713	0.944388
147.62	0.105270	0.943260
148.14	0.106796	0.943336
148.66	0.104324	0.943031
149.18	0.101425	0.942154
149.70	0.106171	0.943298
150.22	0.104065	0.942917
150.74	0.106125	0.941772
151.26	0.106384	0.942230
151.78	0.104706	0.940475
152.30	0.108673	0.941315
152.82	0.107452	0.940323
153.35	0.105042	0.941544
153.87	0.104218	0.940895
154.39	0.105103	0.940437
154.91	0.102249	0.940475
155.43	0.107834	0.941696
155.95	0.108597	0.940590
156.47	0.104523	0.939980
156.99	0.104233	0.939751
157.51	0.103928	0.940208
158.03	0.106461	0.940094
158.55	0.102463	0.938797
159.07	0.105377	0.939064
159.59	0.104736	0.939255
160.11	0.103607	0.938339
160.63	0.104721	0.939484
161.15	0.100586	0.939002
161.67	0.106262	0.937767
162.19	0.107132	0.938377
162.71	0.101547	0.938148
163.23	0.106857	0.938377
163.75	0.108704	0.938644
164.27	0.109055	0.937424
164.79	0.109222	0.938187
165.31	0.105453	0.937195
165.83	0.105637	0.937576
166.35	0.107986	0.938187
166.87	0.104858	0.936928
167.39	0.106964	0.936623
167.91	0.105042	0.936356
168.43	0.105728	0.936890
168.95	0.103989	0.937309
169.47	0.101990	0.935822
169.99	0.107346	0.935860
170.52	0.103928	0.935745
171.03	0.102996	0.934980
171.55	0.103851	0.936203
172.07	0.103973	0.935631
172.59	0.099197	0.934868
173.11	0.108954	0.935059
173.63	0.108582	0.934029
174.15	0.109741	0.934715
174.67	0.114502	0.936279
175.19	0.105026	0.934258
175.71	0.108429	0.934105
176.23	0.094086	0.934181
176.75	0.108551	0.934258
177.27	0.110489	0.934753
177.79	0.104111	0.933876
178.31	0.110046	0.933228
178.84	0.114655	0.933418
179.36	0.103363	0.932693
179.88	0.107086	0.933342
180.40	0.108414	0.932617
180.92	0.107635	0.933380
181.44	0.107895	0.933609
181.96	0.106781	0.931358
182.48	0.104950	0.932083
183.00	0.102814	0.931702
183.52	0.109039	0.932159
184.04	0.098648	0.932922
184.56	0.105545	0.931511
185.08	0.102371	0.931396
185.60	0.107483	0.931358
186.12	0.107117	0.929947
186.64	0.107635	0.931892
187.16	0.105179	0.932198
187.68	0.109131	0.930557
188.20	0.109589	0.930634
188.72	0.108383	0.930710
189.24	0.105347	0.931320
189.76	0.108734	0.930939
190.28	0.106308	0.930099
190.80	0.108139	0.929832
191.32	0.109894	0.929909
191.84	0.105499	0.930405
192.36	0.110107	0.928955
192.88	0.112396	0.929031
193.40	0.105423	0.929260
193.93	0.108521	0.929070
194.45	0.105225	0.929680
194.97	0.110977	0.928955
195.49	0.106888	0.927696
196.01	0.110397	0.929756
196.53	0.106796	0.928612
197.06	0.111841	0.929749
197.58	0.108337	0.928421
198.10	0.105331	0.927505
198.62	0.110886	0.927811
199.14	0.104858	0.926590
199.66	0.106293	0.927582
200.18	0.118011	0.928535
200.70	0.111938	0.926514
201.22	0.108398	0.927277
201.74	0.114044	0.926476
202.26	0.107605	0.926895
202.78	0.108917	0.927391
203.30	0.111481	0.926437
203.82	0.110657	0.926056
204.34	0.107544	0.926056
204.86	0.108231	0.926247
205.38	0.105118	0.926666
205.90	0.110046	0.926170
206.42	0.110245	0.925331
206.94	0.109085	0.925407
207.46	0.111465	0.924721
207.98	0.109970	0.926247
208.50	0.107513	0.925179
209.02	0.108810	0.924454
209.54	0.112579	0.925026
210.06	0.107803	0.924606
210.58	0.106262	0.925674
211.10	0.111725	0.923882
211.62	0.108200	0.924950
212.14	0.110901	0.923729
212.66	0.112076	0.925674
213.18	0.109955	0.925255
213.70	0.110901	0.924110
214.22	0.107681	0.923576
214.74	0.109589	0.923767
215.26	0.111954	0.923729
215.78	0.106644	0.924568
216.30	0.109009	0.923615
216.82	0.110855	0.922661
217.34	0.107178	0.923462
217.86	0.107132	0.921021
218.38	0.108109	0.923920
218.90	0.109406	0.923309
219.42	0.109497	0.922623
219.94	0.110046	0.923195
220.46	0.109344	0.921288
220.98	0.110672	0.922394
221.50	0.112747	0.922661
222.02	0.109955	0.921593
222.54	0.111984	0.921783
223.06	0.111801	0.921326
223.58	0.111115	0.921745
224.10	0.112030	0.921822
224.62	0.113403	0.921364
225.14	0.113205	0.921783
225.66	0.109756	0.920334
226.18	0.109039	0.921249
226.70	0.115219	0.921669
227.22	0.110870	0.920334
227.74	0.113403	0.919800
228.26	0.109955	0.920563
228.78	0.112122	0.920067
229.30	0.111160	0.921478
229.82	0.110962	0.919762
230.34	0.111877	0.919647
230.86	0.107758	0.919838
231.38	0.113373	0.920029
231.90	0.111923	0.920486
232.42	0.115219	0.920525
232.94	0.116791	0.919228
233.46	0.110214	0.919495
233.98	0.112198	0.917435
234.50	0.114685	0.919876
235.02	0.111603	0.919304
235.54	0.115814	0.918236
236.06	0.115509	0.919037
236.58	0.112462	0.918244
237.10	0.117139	0.918498
237.62	0.118088	0.919304
238.14	0.117142	0.918999
238.66	0.115036	0.917854
239.18	0.112244	0.917511
239.70	0.114639	0.917015
240.22	0.113449	0.918579
240.74	0.110367	0.917778
241.26	0.114731	0.916824
241.78	0.115524	0.917168
242.30	0.112778	0.916367
242.82	0.116089	0.917397
243.34	0.118515	0.917702
243.86	0.117035	0.916100
244.38	0.116257	0.916634
244.90	0.113251	0.916023
245.42	0.114410	0.916214
245.94	0.113876	0.916862
246.46	0.114334	0.915489
246.98	0.117432	0.916100
247.50	0.114258	0.915222
248.02	0.116547	0.915298
248.54	0.117691	0.917244
249.06	0.116333	0.915108
249.58	0.116440	0.914307
250.10	0.116760	0.914230
250.62	0.113754	0.914268
251.14	0.117889	0.915184
251.66	0.118225	0.914001
252.18	0.114288	0.914612
252.70	0.117310	0.915451
253.23	0.118973	0.914612
253.76	0.120239	0.915031
254.28	0.115967	0.913620
254.80	0.119125	0.913620
255.32	0.117844	0.913925
255.84	0.113998	0.914612
256.36	0.117981	0.912971
256.88	0.115784	0.913887
257.40	0.111603	0.913696
257.92	0.115677	0.913353
258.44	0.121597	0.913811
258.96	0.117401	0.913277
259.48	0.114258	0.913162
260.00	0.114685	0.912094
260.52	0.121689	0.913544
261.05	0.119471	0.913086
261.57	0.115677	0.912018
262.10	0.117554	0.913239
262.62	0.119980	0.912361
263.14	0.121368	0.911980
263.66	0.117081	0.912437
264.18	0.112625	0.911713
264.70	0.116699	0.912514
265.22	0.118896	0.911331
265.74	0.116211	0.912018
266.26	0.113708	0.912170
266.78	0.114136	0.911903
267.30	0.117981	0.911751
267.82	0.119308	0.910187
268.34	0.117920	0.910606
268.86	0.115814	0.911179
269.38	0.118881	0.910873
269.90	0.120148	0.910492
270.42	0.112167	0.910263
270.94	0.120148	0.909538
271.46	0.118179	0.910606
271.98	0.122101	0.910912
272.50	0.118484	0.909271
273.02	0.118210	0.909615
273.54	0.117264	0.909042
274.06	0.119537	0.909538
274.58	0.123581	0.909843
275.10	0.124222	0.909309
275.62	0.117432	0.909576
276.14	0.121124	0.907974
276.66	0.118515	0.908775
277.18	0.120071	0.910606
277.70	0.120544	0.909081
278.22	0.116348	0.908661
278.74	0.123299	0.908203
279.26	0.116116	0.907140
279.79	0.122733	0.909773
280.31	0.108276	0.909996
280.84	0.120132	0.908356
281.37	0.109650	0.908165
281.89	0.121048	0.908012
282.41	0.121597	0.908623
282.93	0.117584	0.907860
283.45	0.120605	0.907593
283.97	0.118881	0.907021
284.49	0.122620	0.907936
285.02	0.120495	0.906628
285.54	0.124741	0.907326
286.06	0.124985	0.906792
286.58	0.123505	0.906487
287.10	0.121597	0.906487
287.62	0.117798	0.907059
288.14	0.123352	0.906067
288.66	0.118805	0.905952
289.18	0.120590	0.904846
289.70	0.122528	0.906448
290.22	0.119537	0.906639
290.74	0.123581	0.905800
291.26	0.122604	0.906296
291.78	0.124603	0.906448
292.30	0.121964	0.904655
292.82	0.117325	0.905266
293.35	0.127548	0.906067
293.87	0.124146	0.904465
294.39	0.122650	0.905418
294.91	0.122635	0.904541
295.43	0.120453	0.905609
295.95	0.125992	0.904617
296.47	0.124115	0.904274
296.99	0.124634	0.904121
297.51	0.117737	0.904427
298.03	0.121307	0.904427
298.55	0.120102	0.904846
299.07	0.126999	0.904465
299.59	0.120804	0.903397
300.11	0.120270	0.903740
300.63	0.122345	0.902672
301.15	0.122330	0.905380
301.67	0.113312	0.904312
302.19	0.125992	0.903091
302.71	0.122620	0.903397
303.23	0.124100	0.903015
303.75	0.122864	0.904312
304.27	0.122299	0.903511
304.79	0.126968	0.902901
305.31	0.123840	0.903130
305.83	0.120026	0.902138
306.35	0.126556	0.902214
306.87	0.127304	0.903168
307.39	0.125198	0.902100
307.91	0.125656	0.902328
308.43	0.124481	0.901642
308.95	0.125351	0.901871
309.48	0.124115	0.902443
310.00	0.124283	0.901909
310.52	0.123871	0.901566
311.04	0.125488	0.902786
311.56	0.131973	0.901070
312.08	0.126511	0.901108
312.60	0.120453	0.900536
313.12	0.126175	0.900497
313.64	0.121170	0.902214
314.16	0.123917	0.900726
314.68	0.126389	0.900459
315.20	0.095078	0.900841
315.72	0.097809	0.899467
316.24	0.114944	0.901718
316.76	0.122986	0.900269
317.28	0.122818	0.899849
317.80	0.127167	0.900192
318.32	0.123123	0.899010
318.84	0.120712	0.900497
319.36	0.125244	0.900917
319.88	0.123566	0.900803
320.40	0.122513	0.899887
320.92	0.125061	0.899315
321.44	0.128769	0.899620
321.96	0.128036	0.899925
322.48	0.122955	0.899849
323.00	0.122787	0.899734
323.52	0.129608	0.899200
324.04	0.128632	0.898170
324.56	0.126099	0.900497
325.08	0.124527	0.899467
325.60	0.130127	0.898285
326.12	0.126801	0.898476
326.64	0.126007	0.898590
327.16	0.126938	0.899391
327.68	0.129410	0.898743
328.20	0.124786	0.897446
328.72	0.127426	0.897865
329.24	0.128098	0.897522
329.76	0.127777	0.898743
330.28	0.121490	0.898705
330.80	0.126297	0.898781
331.33	0.133843	0.899839
331.85	0.125173	0.898241
332.41	0.121535	0.897099
332.93	0.130670	0.897414
333.46	0.129017	0.897177
333.99	0.124847	0.896721
334.51	0.133537	0.896038
335.03	0.124275	0.896469
335.55	0.125793	0.895691
336.07	0.130417	0.896339
336.60	0.125549	0.896797
337.13	0.129913	0.896111
337.65	0.126892	0.897255
338.17	0.126144	0.895920
338.69	0.125244	0.896034
339.21	0.127014	0.895271
339.74	0.126572	0.894318
340.26	0.124100	0.895920
340.78	0.128067	0.895309
341.30	0.128204	0.895844
341.82	0.128342	0.896683
342.34	0.126175	0.895042
342.86	0.126938	0.895844
343.38	0.124161	0.895004
343.90	0.128465	0.895130
344.42	0.126968	0.895996
344.94	0.128098	0.895538
345.46	0.129242	0.894699
345.98	0.123840	0.894966
346.50	0.128738	0.894432
347.02	0.127640	0.895157
347.54	0.124451	0.895157
348.06	0.131226	0.894547
348.62	0.123393	0.894342
349.14	0.132339	0.895615
349.66	0.119598	0.894394
350.18	0.127609	0.893478
350.70	0.131699	0.893707
351.22	0.129623	0.894012
351.74	0.130157	0.894051
352.26	0.129959	0.893860
352.78	0.125946	0.893440
353.30	0.132309	0.893440
353.82	0.130569	0.892906
354.34	0.125977	0.894470
354.86	0.127653	0.894002
355.38	0.133072	0.893440
355.91	0.126022	0.893097
356.43	0.127472	0.891724
356.95	0.128220	0.893402
357.48	0.131149	0.892677
358.00	0.125488	0.892296
358.52	0.129089	0.893555
359.04	0.126282	0.891914
359.56	0.130544	0.892807
360.08	0.129044	0.891533
360.60	0.131119	0.892487
361.12	0.129440	0.892792
361.64	0.129578	0.892601
362.16	0.126831	0.891724
362.69	0.126205	0.892181
363.21	0.126480	0.891266
363.73	0.125870	0.891228
364.25	0.127426	0.890236
364.78	0.135400	0.889933
365.30	0.126953	0.892601
365.82	0.130676	0.890923
366.35	0.137573	0.892067
366.87	0.128265	0.891724
367.40	0.127457	0.890656
367.92	0.131531	0.890503
368.44	0.131287	0.891037
368.96	0.129639	0.890121
369.48	0.130554	0.890427
370.00	0.134155	0.890045
370.52	0.130402	0.890961
371.04	0.131546	0.891571
371.56	0.128601	0.888939
372.08	0.131790	0.889702
372.60	0.128769	0.889130
373.12	0.130020	0.889091
373.64	0.130707	0.890656
374.16	0.129913	0.890274
374.68	0.130829	0.888901
375.20	0.129288	0.889244
375.73	0.129501	0.889282
376.25	0.131485	0.889664
376.77	0.134109	0.888634
377.29	0.133728	0.888939
377.81	0.133911	0.889778
378.33	0.128754	0.888557
378.85	0.134369	0.888214
379.37	0.130402	0.888977
379.89	0.128891	0.888329
380.41	0.124298	0.889816
380.93	0.129013	0.888863
381.45	0.130890	0.888710
381.97	0.132645	0.887566
382.49	0.129608	0.888901
383.01	0.134903	0.889778
383.53	0.130676	0.887718
384.05	0.133698	0.887604
384.57	0.134201	0.887642
385.09	0.134415	0.888329
385.61	0.133331	0.888939
386.13	0.135941	0.887184
386.65	0.132004	0.887756
387.17	0.134094	0.886612
387.69	0.137909	0.887756
388.21	0.134354	0.888329
388.73	0.128036	0.887794
389.25	0.130432	0.886497
389.77	0.130524	0.887108
390.29	0.134048	0.887642
390.82	0.123871	0.887642
391.34	0.129456	0.886803
391.86	0.133682	0.886688
392.38	0.137161	0.886955
392.90	0.132523	0.886726
393.42	0.134781	0.886116
393.94	0.135742	0.885506
394.46	0.131027	0.886040
394.98	0.134155	0.887833
395.50	0.134460	0.886269
396.02	0.134445	0.885124
396.54	0.132416	0.886154
397.06	0.131729	0.885582
397.58	0.132675	0.886383
398.10	0.134277	0.885582
398.62	0.135300	0.884819
399.14	0.129913	0.885696
399.66	0.136276	0.885963
400.18	0.133728	0.886230
400.70	0.134308	0.885353
401.22	0.134079	0.884972
401.74	0.136658	0.886421
402.27	0.133286	0.884399
402.79	0.132492	0.884781
403.31	0.135223	0.883522
403.83	0.131622	0.885124
404.35	0.138657	0.883751
404.87	0.132187	0.884247
405.39	0.135422	0.884171
405.91	0.130066	0.885124
406.43	0.134186	0.884323
406.95	0.135849	0.884628
407.47	0.133911	0.883217
407.99	0.131073	0.884132
408.51	0.131485	0.885391
409.03	0.132889	0.883522
409.55	0.132950	0.883522
410.07	0.133011	0.882301
410.59	0.135406	0.883446
411.11	0.135742	0.885086
411.63	0.135956	0.883141
412.15	0.134216	0.882454
412.67	0.131821	0.882950
413.19	0.134430	0.882721
413.71	0.138672	0.884056
414.23	0.137222	0.882874
414.75	0.135223	0.882759
415.27	0.132690	0.881577
415.79	0.136414	0.882111
416.31	0.137466	0.884285
416.83	0.135101	0.880623
417.35	0.135742	0.882034
417.87	0.133194	0.881577
418.39	0.135239	0.881310
418.92	0.135437	0.883141
419.44	0.132065	0.881729
419.96	0.138458	0.882072
420.48	0.134903	0.882874
421.00	0.134750	0.881348
421.52	0.139343	0.881119
422.04	0.140274	0.881538
422.57	0.132416	0.881767
423.09	0.134384	0.881004
423.61	0.135376	0.881844
424.13	0.137695	0.881805
424.65	0.135590	0.881958
425.17	0.136475	0.880203
425.69	0.135834	0.881119
426.21	0.136490	0.879631
426.73	0.140503	0.881424
427.25	0.138382	0.881081
427.77	0.137512	0.879784
428.29	0.140656	0.881004
428.81	0.134689	0.880356
429.33	0.137466	0.880737
429.85	0.136566	0.881042
430.37	0.139313	0.878983
430.89	0.136642	0.879784
431.41	0.133835	0.879631
431.93	0.138962	0.879974
432.45	0.135513	0.880814
432.97	0.140106	0.879860
433.49	0.136490	0.880241
434.02	0.139847	0.880699
434.54	0.139954	0.879097
435.06	0.139832	0.879593
435.58	0.142700	0.879440
436.10	0.137802	0.880013
436.62	0.138779	0.880852
437.14	0.136902	0.879517
437.66	0.138840	0.878754
438.18	0.138107	0.877953
438.70	0.137466	0.878983
439.22	0.137573	0.879898
439.74	0.142227	0.880318
440.26	0.140411	0.878868
440.78	0.137863	0.880432
441.30	0.143555	0.878220
441.82	0.137405	0.879021
442.34	0.136200	0.878334
442.86	0.136780	0.877876
443.38	0.141266	0.879440
443.90	0.141251	0.878143
444.42	0.136658	0.877762
444.94	0.143341	0.877686
445.46	0.139923	0.877914
445.98	0.142380	0.879097
446.50	0.132187	0.878220
447.02	0.132095	0.877953
447.54	0.139221	0.876770
448.06	0.139648	0.877304
448.58	0.136566	0.877800
449.10	0.140289	0.878258
449.62	0.134460	0.876465
450.14	0.137421	0.877457
450.66	0.142151	0.876923
451.18	0.144119	0.877876
451.70	0.144592	0.877113
452.22	0.149246	0.875320
452.74	0.138306	0.876465
453.26	0.139191	0.876541
453.78	0.144394	0.877228
454.30	0.143021	0.876846
454.82	0.144226	0.876312
455.35	0.142914	0.875931
455.86	0.145432	0.875282
456.38	0.143494	0.876007
456.90	0.146240	0.876732
457.42	0.143982	0.875397
457.94	0.142136	0.875320
458.46	0.141281	0.874481
458.98	0.141098	0.873795
459.50	0.144318	0.875320
460.02	0.145554	0.873795
460.54	0.142456	0.873985
461.06	0.140274	0.874062
461.58	0.141632	0.873375
462.10	0.144852	0.874901
462.62	0.141602	0.874290
463.14	0.141571	0.872841
463.66	0.148346	0.873566
464.18	0.144592	0.872307
464.70	0.145294	0.874634
465.22	0.144775	0.874367
465.74	0.146957	0.872765
466.26	0.145096	0.872078
466.78	0.145370	0.871735
467.30	0.146469	0.872421
467.82	0.145309	0.873260
468.34	0.149734	0.871582
468.86	0.146790	0.871315
469.38	0.147461	0.870934
469.90	0.147690	0.871506
470.42	0.148422	0.872231
470.95	0.147583	0.870819
471.47	0.145432	0.871048
471.99	0.146988	0.870552
472.51	0.146347	0.870056
473.03	0.149261	0.870132
473.55	0.148041	0.869255
474.07	0.148972	0.870018
474.59	0.149445	0.870667
475.11	0.144374	0.869180
475.63	0.149612	0.869865
476.16	0.141968	0.869141
476.68	0.140762	0.868378
477.20	0.150650	0.868645
477.72	0.144831	0.868077
478.24	0.147797	0.867920
478.76	0.148407	0.869408
479.28	0.144653	0.867348
479.80	0.152420	0.867310
480.32	0.150055	0.867615
480.84	0.144531	0.867004
481.36	0.152283	0.868301
481.88	0.153915	0.866814
482.40	0.151978	0.866699
482.92	0.151108	0.866585
483.44	0.152740	0.866318
483.96	0.152908	0.867348
484.48	0.150253	0.866814
485.00	0.155182	0.866318
485.52	0.154938	0.865746
486.04	0.151047	0.865250
486.56	0.153564	0.866737
487.08	0.151230	0.864754
487.60	0.155411	0.864220
488.13	0.154770	0.864868
488.65	0.145172	0.863991
489.17	0.154312	0.864601
489.69	0.154068	0.863190
490.22	0.147217	0.862846
490.74	0.154434	0.862770
491.26	0.153519	0.862274
491.78	0.148132	0.863304
492.30	0.149109	0.863609
492.82	0.156082	0.863037
493.34	0.150238	0.862503
493.86	0.157089	0.863075
